Normal incidence	
Wavelength (nm)	Transmission
192.414993	0.020805
194.001999	0.021187
195.589081	0.021786
197.176178	0.021134
198.763351	0.020491
200.350571	0.02047
201.937836	0.019899
203.525162	0.019464
205.112518	0.018954
206.699921	0.018522
208.287399	0.018478
209.874908	0.018394
211.462448	0.018234
213.050049	0.018049
214.637695	0.017567
216.225388	0.017431
217.813141	0.017089
219.400925	0.016821
220.98877	0.016598
222.57663	0.016553
224.164581	0.016148
225.752533	0.016017
227.340546	0.015947
228.928619	0.016008
230.516693	0.015729
232.104858	0.015407
233.693039	0.015379
235.281281	0.015293
236.869537	0.015148
238.457855	0.014874
240.046219	0.014729
241.634598	0.014539
243.223053	0.014312
244.811523	0.014254
246.400055	0.01416
247.988602	0.014124
249.577194	0.01411
251.165848	0.013944
252.754517	0.013852
254.343231	0.013819
255.932007	0.013728
257.520813	0.013626
259.10965	0.013594
260.698517	0.013523
262.287415	0.013508
263.876373	0.013507
265.465363	0.013546
267.054382	0.013444
268.643433	0.013497
270.232513	0.013504
271.821655	0.013567
273.410828	0.013661
275.000031	0.013714
276.589264	0.013797
278.178528	0.013971
279.767822	0.014009
281.357147	0.014087
282.946533	0.014147
284.53595	0.01438
286.125366	0.014329
287.714844	0.014649
289.304352	0.014768
290.89386	0.014926
292.483459	0.015134
294.073029	0.01537
295.662659	0.015688
297.252319	0.015862
298.84201	0.016249
300.431732	0.016373
302.021484	0.016811
303.611267	0.017052
305.20105	0.017448
306.790894	0.017845
308.380768	0.018159
309.970642	0.018528
311.560577	0.018997
313.150543	0.019655
314.740509	0.020038
316.330505	0.020569
317.920532	0.021135
319.51059	0.021673
321.100677	0.022209
322.690796	0.022835
324.280914	0.023665
325.871063	0.024261
327.461243	0.024907
329.051453	0.025622
330.641693	0.026811
332.231964	0.027477
333.822235	0.028301
335.412537	0.029251
337.002869	0.030308
338.593231	0.031057
340.183594	0.031963
341.773987	0.03316
343.36441	0.03405
344.954865	0.035213
346.545319	0.036233
348.135803	0.037683
349.726288	0.038824
351.316833	0.040196
352.907349	0.041456
354.497894	0.042893
356.088501	0.04438
357.679108	0.046083
359.269714	0.047448
360.860352	0.048645
362.450989	0.050034
364.041687	0.051378
365.632385	0.052972
367.223083	0.054467
368.813782	0.056132
370.404541	0.057584
371.9953	0.05955
373.58606	0.060882
375.176849	0.062855
376.767639	0.064415
378.358459	0.066249
379.94931	0.06808
381.540161	0.069744
383.131042	0.071656
384.721893	0.073244
386.312805	0.074928
387.903687	0.076861
389.494598	0.078561
391.08551	0.080578
392.676453	0.082533
394.267426	0.084488
395.858398	0.08644
397.449371	0.088051
399.040344	0.089782
400.631348	0.091504
402.222351	0.093302
403.813385	0.095048
405.404388	0.097073
406.995422	0.098799
408.586487	0.100838
410.177551	0.102723
411.768616	0.104343
413.35968	0.105751
414.950745	0.10768
416.54184	0.109763
418.132904	0.111578
419.72403	0.113338
421.315125	0.114623
422.90625	0.116188
424.497375	0.117687
426.088531	0.119365
427.679626	0.121284
429.270813	0.122721
430.861908	0.124126
432.453064	0.125911
434.04425	0.127701
435.635345	0.129454
437.226501	0.131441
438.817688	0.132774
440.408844	0.134283
442.000061	0.135822
443.591217	0.136988
445.182373	0.13868
446.773529	0.140244
448.364685	0.141711
449.955902	0.143619
451.547058	0.145241
453.138245	0.147101
454.729431	0.148744
456.320618	0.149996
457.911774	0.151348
459.502991	0.152797
461.094147	0.154507
462.685303	0.156511
464.276459	0.157763
465.867676	0.159394
467.458832	0.160713
469.049988	0.16191
470.641174	0.163809
472.23233	0.165459
473.823486	0.167203
475.414642	0.168723
477.005768	0.170357
478.596924	0.171944
480.18808	0.173469
481.779205	0.174732
483.3703	0.176701
484.961487	0.18073
486.552582	0.182563
488.143707	0.182618
489.734802	0.182983
491.325867	0.184404
492.916992	0.18633
494.508057	0.188048
496.099182	0.189543
497.690247	0.191103
499.281311	0.192717
500.872314	0.19449
502.463379	0.196145
504.054382	0.198325
505.645416	0.199849
507.23642	0.201039
508.827454	0.202282
510.418457	0.204383
512.009399	0.206032
513.600403	0.207653
515.191345	0.209391
516.782288	0.211405
518.37323	0.213115
519.964172	0.214695
521.555054	0.216549
523.145935	0.218142
524.736877	0.220236
526.327759	0.22245
527.918579	0.224169
529.509399	0.225667
531.10022	0.227431
532.69104	0.229167
534.28186	0.231414
535.872681	0.233519
537.463379	0.235546
539.054138	0.237127
540.644897	0.23903
542.235596	0.241481
543.826294	0.243678
545.416992	0.245901
547.00769	0.247704
548.598267	0.249226
550.188904	0.250473
551.779541	0.252508
553.370117	0.254263
554.960693	0.256302
556.55127	0.258204
558.141785	0.260351
559.7323	0.262497
561.322815	0.264741
562.913269	0.266983
564.503723	0.269046
566.094116	0.270522
567.68457	0.272099
569.274963	0.273614
570.865295	0.276433
572.455688	0.278485
574.045959	0.280715
575.636292	0.281837
577.226501	0.283915
578.816772	0.28644
580.406982	0.288992
581.997192	0.291948
583.587341	0.295031
585.177551	0.296885
586.767639	0.298684
588.357788	0.300579
589.947815	0.302853
591.537842	0.304925
593.127869	0.307257
594.717896	0.309876
596.307861	0.311812
597.897766	0.313453
599.487671	0.315968
601.077576	0.318757
602.667419	0.32087
604.257202	0.322747
605.847046	0.32402
607.436829	0.32566
609.02655	0.327545
610.616272	0.32973
612.205933	0.331724
613.795532	0.333998
615.385193	0.336084
616.974731	0.338831
618.564331	0.341027
620.15387	0.343739
621.743347	0.346393
623.332825	0.348161
624.922241	0.34988
626.511597	0.352554
628.100952	0.355198
629.690308	0.357069
631.279602	0.359675
632.868835	0.362297
634.458069	0.363824
636.047241	0.365448
637.636353	0.367517
639.225464	0.370013
640.814575	0.372587
642.403625	0.37443
643.992615	0.376158
645.581604	0.378291
647.170532	0.380765
648.759399	0.382147
650.348267	0.384244
651.937134	0.386034
653.525879	0.387249
655.114624	0.38463
656.703308	0.384445
658.291992	0.389186
659.880615	0.397355
661.469177	0.400491
663.057739	0.401484
664.64624	0.403116
666.234741	0.404549
667.82312	0.406347
669.411499	0.408971
670.999878	0.411103
672.588135	0.413043
674.176392	0.414928
675.764587	0.41645
677.352783	0.418421
678.940918	0.420879
680.528992	0.423072
682.117065	0.424073
683.705017	0.425578
685.292969	0.427228
686.88092	0.428938
688.46875	0.430546
690.056519	0.432655
691.644348	0.434339
693.232056	0.436697
694.819702	0.438335
696.407349	0.44057
697.994934	0.442458
699.582458	0.443959
701.169983	0.446378
702.757446	0.447804
704.344849	0.449339
705.932129	0.451919
707.519409	0.452963
709.106689	0.453861
710.693909	0.455605
712.281067	0.457629
713.868103	0.4586
715.4552	0.459317
717.042175	0.461068
718.629089	0.462963
720.216003	0.465944
721.802856	0.467239
723.389648	0.468676
724.976379	0.469527
726.56311	0.470908
728.149719	0.473502
729.736267	0.475191
731.322815	0.475035
732.909302	0.476359
734.495728	0.478323
736.082092	0.48106
737.668335	0.482853
739.254639	0.48535
740.84082	0.485569
742.426941	0.485659
744.013062	0.487409
745.59906	0.489149
747.185059	0.490124
748.770996	0.490875
750.356812	0.492845
751.942688	0.494145
753.528442	0.495395
755.114136	0.497071
756.699707	0.499079
758.285278	0.501363
759.870789	0.50211
761.456238	0.503095
763.041626	0.503629
764.627014	0.505241
766.21228	0.507544
767.797485	0.508234
769.382629	0.508875
770.967712	0.510356
772.552734	0.512908
774.137695	0.513355
775.722595	0.515809
777.307495	0.518331
778.892212	0.519363
780.476929	0.519686
782.061646	0.519425
783.646179	0.519162
785.230713	0.519217
786.815186	0.524148
788.399597	0.524199
789.983948	0.526073
791.568237	0.526885
793.152405	0.52657
794.736511	0.52909
796.320618	0.530258
797.904663	0.531781
799.488586	0.532594
801.072388	0.533428
802.65625	0.537289
804.23999	0.536197
805.823608	0.536909
807.407227	0.538565
808.990784	0.537194
810.574219	0.538512
812.157593	0.541169
813.740967	0.54179
815.324219	0.545658
816.907349	0.547618
818.49054	0.546164
820.073547	0.548895
821.656555	0.54936
823.239441	0.549471
824.822266	0.551274
826.404968	0.552062
827.987671	0.551311
829.570313	0.553073
831.152832	0.55716
832.735352	0.559211
834.317688	0.558672
835.900024	0.559466
837.4823	0.561792
839.064453	0.563416
840.646606	0.56305
842.228638	0.565077
843.810547	0.566696
845.392395	0.565727
846.974243	0.566323
848.555847	0.566593
850.137512	0.569604
851.719116	0.569151
853.300598	0.574206
854.882019	0.573655
856.463379	0.57404
858.044617	0.575949
859.625793	0.575374
861.206848	0.577543
862.787903	0.576208
864.368835	0.576105
865.949707	0.580291
867.530457	0.580401
869.111145	0.579887
870.691772	0.582078
872.272339	0.581455
873.852722	0.584063
875.433228	0.588361
877.013489	0.585545
878.593628	0.583385
880.173828	0.590703
881.753784	0.590567
883.333801	0.589341
884.913696	0.59159
886.493469	0.597516
888.073242	0.597925
889.652832	0.592674
891.2323	0.596665
892.811829	0.602627
894.391235	0.602993
895.97052	0.596119
897.549683	0.593547
899.128784	0.599123
900.707825	0.604576
902.286804	0.604623
903.865601	0.603961
905.444458	0.598156
907.023071	0.599907
908.601685	0.603965
910.180176	0.60627
911.758606	0.610004
913.336914	0.613253
914.915161	0.611427
916.493347	0.610254
918.071411	0.608755
919.649292	0.606556
921.227234	0.607922
922.804993	0.609195
924.38269	0.611022
925.960327	0.6123
927.537781	0.611722
929.115234	0.613805
930.692566	0.616396
932.269836	0.613872
933.846985	0.615917
935.424011	0.619162
937.000977	0.62434
938.57782	0.626936
940.154602	0.630143
941.731262	0.629175
943.307922	0.627904
944.884399	0.628173
946.460754	0.628276
948.036987	0.627853
949.613281	0.62904
951.189331	0.631714
952.76532	0.631684
954.341309	0.631069
955.917114	0.630527
957.492798	0.633094
959.068359	0.631044
960.643921	0.631763
962.21936	0.632603
963.794617	0.634498
965.369934	0.633112
966.945007	0.63509
968.52002	0.637622
970.09491	0.637506
971.6698	0.640725
973.244507	0.642416
974.819153	0.643937
976.393677	0.640524
977.968079	0.64112
979.542358	0.639491
981.116577	0.640795
982.690735	0.64203
984.264771	0.641148
985.838684	0.64314
987.412415	0.645858
988.986145	0.646238
990.559753	0.644313
992.133179	0.646555
993.706665	0.647667
995.279907	0.646806
996.853027	0.648461
998.426147	0.648165
999.999146	0.648384
1012.878723	0.662601
1016.250183	0.660966
1019.622375	0.664048
1022.995239	0.665615
1026.368652	0.666487
1029.74292	0.66774
1033.117676	0.667935
1036.493286	0.669522
1039.869385	0.668433
1043.246338	0.671737
1046.623779	0.673107
1050.001953	0.673953
1053.380859	0.677783
1056.760498	0.678878
1060.140625	0.680068
1063.521484	0.67851
1066.903076	0.684032
1070.2854	0.684016
1073.668213	0.685541
1077.051758	0.687987
1080.436035	0.688679
1083.820923	0.688224
1087.206543	0.691272
1090.592773	0.694524
1093.979736	0.695204
1097.36731	0.694797
1100.755615	0.698928
1104.144531	0.698413
1107.53418	0.700053
1110.924438	0.700529
1114.31543	0.701226
1117.707031	0.703006
1121.099365	0.705323
1124.49231	0.708426
1127.885986	0.708187
1131.280273	0.706792
1134.675293	0.710975
1138.070923	0.713323
1141.467285	0.714358
1144.864258	0.717897
1148.261963	0.71905
1151.660278	0.719096
1155.059326	0.720477
1158.458984	0.723301
1161.859253	0.720609
1165.260376	0.721326
1168.661987	0.721385
1172.064453	0.725517
1175.467529	0.723305
1178.871216	0.724626
1182.275635	0.725792
1185.680664	0.728842
1189.086304	0.725836
1192.492798	0.727604
1195.89978	0.728958
1199.307617	0.730454
1202.716064	0.730406
1206.125122	0.733933
1209.534912	0.732473
1212.945313	0.73618
1216.356445	0.734634
1219.768188	0.736844
1223.180664	0.738456
1226.59375	0.740752
1230.007568	0.740403
1233.421997	0.742038
1236.837158	0.746304
1240.25293	0.744703
1243.669434	0.746112
1247.086548	0.746377
1250.504395	0.74656
1253.922852	0.746669
1257.342041	0.747494
1260.761841	0.747674
1264.182373	0.750548
1267.603516	0.751427
1271.025391	0.751741
1274.447998	0.757255
1277.871094	0.750768
1281.294922	0.752394
1284.719482	0.754667
1288.144775	0.757486
1291.570557	0.758199
1294.997192	0.75943
1298.424316	0.757107
1301.852295	0.758477
1305.280762	0.758743
1308.710083	0.759495
1312.139893	0.761662
1315.570557	0.762344
1319.001709	0.762152
1322.433716	0.762797
1325.866333	0.763784
1329.299561	0.766243
1332.733521	0.767573
1336.168091	0.767718
1339.603271	0.766633
1343.039307	0.768884
1346.47583	0.770216
1349.913208	0.768706
1353.351196	0.765805
1356.789795	0.770049
1360.229126	0.769203
1363.669189	0.769603
1367.109741	0.767402
1370.551025	0.770276
1373.993042	0.772246
1377.435791	0.770924
1380.87915	0.770632
1384.322998	0.772025
1387.767822	0.777455
1391.213135	0.775245
1394.65918	0.774091
1398.105835	0.777884
1401.553223	0.777256
1405.001221	0.778252
1408.449951	0.778088
1411.899292	0.780791
1415.349365	0.777587
1418.800049	0.78479
1422.251465	0.78277
1425.703491	0.782962
1429.15625	0.787794
1432.609619	0.790707
1436.063721	0.784882
1439.518555	0.78403
1442.973877	0.785393
1446.430054	0.785675
1449.886841	0.784124
1453.344238	0.788558
1456.802368	0.787008
1460.261108	0.790719
1463.720581	0.787537
1467.180786	0.790017
1470.641479	0.792892
1474.103027	0.79567
1477.565186	0.794622
1481.027954	0.79934
1484.491455	0.794642
1487.955566	0.797917
1491.42041	0.79822
1494.885986	0.799889
1498.352051	0.796608
1501.81897	0.797333
1505.286377	0.794408
1508.754639	0.79682
1512.223389	0.794465
1515.692993	0.799078
1519.163208	0.799384
1522.634033	0.799685
1526.105591	0.801224
1529.577881	0.799834
1533.050659	0.799595
1536.52417	0.800827
1539.998413	0.800746
1543.473389	0.805787
1546.948975	0.80612
1550.425171	0.810194
1553.9021	0.803569
1557.379639	0.806595
1560.85791	0.81064
1564.336792	0.80896
1567.816528	0.807114
1571.296753	0.804754
1574.777588	0.805089
1578.259277	0.807615
1581.741577	0.807944
1585.224487	0.809669
1588.708252	0.808997
1592.192505	0.814199
1595.67749	0.813803
1599.163086	0.812918
1602.649414	0.812498
1606.136475	0.813461
1609.624023	0.809232
1613.112427	0.811978
1616.601318	0.816846
1620.091064	0.818893
1623.581299	0.817376
1627.072388	0.814592
1630.564087	0.816125
1634.056396	0.817615
1637.549561	0.816978
1641.043213	0.814874
1644.537476	0.816962
1648.032593	0.818156
1651.52832	0.816861
1655.024658	0.813901
1658.521729	0.816645
1662.019531	0.819839
1665.517944	0.818026
1669.016968	0.815366
1672.516846	0.816969
1676.017212	0.814223
1679.518188	0.820799
1683.019897	0.822933
1686.522461	0.828314